#   t (Gyr) =  0.700

    M/MsTeff(K)    L/Ls  lg(g)  R(Gcm       D      Li         F33        F33B         F41        F45B         F47         F51         FHa         F57        F63B         F67         F75         F78         F82        F82B         F89       G_RSV           G        G_BP        G_RP

  0.0400  1307.   -4.58   5.03   7.05  0.0000  1.0000      30.116      30.116      27.261      25.525      24.644      26.020      22.628      26.406      22.783      21.937      21.595      20.947      19.000      18.669      17.114      17.813      19.809      25.242      18.333
  0.0500  1513.   -4.34   5.14   6.89  0.0000  0.9350      29.269      29.269      26.345      24.500      23.961      23.963      20.344      23.976      20.700      19.884      19.540      19.338      17.853      17.950      16.815      17.169      19.204      23.305      17.853
  0.0600  1781.   -4.07   5.24   6.80  0.0000  0.0001      28.428      28.428      25.543      23.458      23.111      22.543      19.228      22.237      19.675      18.893      18.296      18.162      16.980      17.109      16.059      16.515      18.342      21.820      17.020
  0.0800  2456.   -3.44   5.29   7.37  0.0000  0.0000      25.033      25.033      22.956      20.685      20.318      19.767      17.314      19.172      17.705      16.986      15.332      15.411      14.169      14.412      13.435      14.135      15.758      19.335      14.429
  0.0900  2663.   -3.23   5.27   8.04  0.0000  0.0000      22.558      22.558      20.776      18.962      18.578      18.137      16.234      17.662      16.505      15.835      13.972      14.173      13.219      13.419      12.628      13.175      14.808      17.962      13.539
  0.1000  2814.   -3.06   5.24   8.77  0.0000  0.0000      20.796      20.796      18.998      17.513      17.150      16.736      15.188      16.351      15.480      14.895      13.145      13.280      12.546      12.727      12.101      12.488      14.111      16.685      12.908
  0.2000  3260.   -2.32   5.06  15.21  0.0000  0.0000      16.625      16.625      14.547      13.680      13.400      13.042      11.948      12.635      12.201      11.828      10.712      10.706      10.369      10.469      10.110      10.276      11.643      13.025      10.674
  0.3000  3415.   -1.99   4.98  20.36  0.0000  0.0000      15.374      15.374      13.358      12.515      12.230      11.891      10.824      11.438      11.063      10.729       9.788       9.757       9.491       9.575       9.267       9.402      10.665      11.847       9.767
  0.4000  3521.   -1.72   4.90  25.95  0.0000  0.0000      14.491      14.491      12.496      11.657      11.365      11.042      10.002      10.567      10.227       9.916       9.075       9.034       8.805       8.880       8.603       8.723       9.913      10.987       9.061
  0.5000  3680.   -1.46   4.81  32.18  0.0000  0.0000      13.565      13.565      11.585      10.724      10.414      10.119       9.110       9.603       9.310       9.033       8.345       8.290       8.115       8.176       7.941       8.042       9.114      10.042       8.336
  0.6000  3968.   -1.17   4.72  38.78  0.0000  0.0000      12.474      12.474      10.524       9.627       9.285       9.038       8.081       8.479       8.244       8.013       7.555       7.488       7.381       7.423       7.246       7.326       8.201       8.934       7.543
  0.7000  4385.   -0.87   4.67  44.57  0.0000  0.0000      11.015      11.015       9.252       8.471       8.108       7.997       7.005       7.370       7.162       6.959       6.752       6.690       6.637       6.662       6.545       6.608       7.248       7.803       6.723
  0.8000  4822.   -0.60   4.62  50.31  0.0000  0.0028       9.438       9.438       7.965       7.337       7.032       6.898       6.171       6.442       6.292       6.140       6.020       5.977       5.951       5.964       5.888       5.937       6.406       6.817       6.000
  0.9000  5214.   -0.36   4.57  56.98  0.0000  0.0793       8.210       8.210       6.958       6.446       6.198       6.032       5.506       5.707       5.598       5.482       5.396       5.367       5.352       5.362       5.316       5.354       5.711       6.032       5.388
  1.0000  5583.   -0.13   4.51  64.39  0.0000  0.3060       7.200       7.200       6.114       5.696       5.487       5.324       4.928       5.079       4.997       4.908       4.847       4.828       4.819       4.828       4.808       4.837       5.105       5.361       4.847
  1.1000  5908.    0.08   4.44  73.11  0.0000  0.5740       6.387       6.387       5.393       5.044       4.863       4.717       4.408       4.521       4.459       4.390       4.349       4.338       4.334       4.342       4.341       4.363       4.560       4.768       4.355
  1.2000  6183.    0.27   4.36  83.28  0.0000  0.7700       5.723       5.723       4.772       4.473       4.313       4.186       3.944       4.024       3.979       3.926       3.899       3.895       3.898       3.903       3.917       3.932       4.073       4.243       3.911
  1.3000  6444.    0.44   4.29  93.73  0.0000  0.8800       5.167       5.167       4.221       3.961       3.817       3.711       3.527       3.578       3.547       3.510       3.498       3.499       3.508       3.510       3.536       3.548       3.634       3.770       3.513
  1.4000  6721.    0.60   4.24 103.21  0.0000  0.9380       4.691       4.691       3.726       3.501       3.369       3.284       3.160       3.180       3.164       3.143       3.146       3.154       3.169       3.169       3.207       3.216       3.243       3.346       3.166