#   t (Gyr) =  0.300

    M/MsTeff(K)    L/Ls  lg(g)  R(Gcm       D      Li         F33        F33B         F41        F45B         F47         F51         FHa         F57        F63B         F67         F75         F78         F82        F82B         F89       G_RSV           G        G_BP        G_RP

  0.0300  1320.   -4.48   4.82   7.72  0.0000  1.0000      29.904      29.904      27.016      25.301      24.483      25.572      21.985      25.797      22.176      21.336      21.102      20.535      18.605      18.399      16.936      17.521      19.591      24.854      18.141
  0.0400  1667.   -4.09   4.97   7.57  0.0000  1.0000      28.959      28.959      26.004      23.969      23.759      22.872      19.444      22.323      19.874      19.099      18.447      18.310      17.332      17.464      16.527      16.861      18.719      22.012      17.432
  0.0700  2519.   -3.31   5.14   8.20  0.0000  0.0000      23.847      23.847      22.018      19.948      19.569      19.077      16.902      18.516      17.226      16.525      14.692      14.831      13.695      13.933      13.023      13.706      15.304      18.782      13.992
  0.0720  2552.   -3.28   5.14   8.28  0.0000  0.0000      23.483      23.483      21.692      19.719      19.329      18.879      16.747      18.314      17.062      16.366      14.503      14.651      13.557      13.791      12.912      13.564      15.170      18.595      13.867
  0.0750  2594.   -3.24   5.15   8.38  0.0000  0.0000      23.010      23.010      21.270      19.423      19.018      18.626      16.545      18.050      16.847      16.159      14.255      14.415      13.376      13.605      12.766      13.377      14.995      18.351      13.703
  0.0800  2660.   -3.17   5.16   8.59  0.0000  0.0000      22.243      22.243      20.491      18.725      18.357      17.891      16.126      17.506      16.391      15.729      13.836      14.032      13.093      13.295      12.515      13.069      14.686      17.801      13.420
  0.0900  2782.   -3.04   5.16   9.08  0.0000  0.0000      20.846      20.846      19.054      17.532      17.191      16.715      15.267      16.430      15.538      14.946      13.161      13.319      12.563      12.741      12.094      12.512      14.125      16.747      12.916
  0.1000  2874.   -2.94   5.16   9.58  0.0000  0.0000      20.103      20.103      18.316      16.998      16.629      16.289      14.716      15.831      15.007      14.441      12.752      12.868      12.199      12.369      11.784      12.138      13.744      16.180      12.561
  0.2000  3261.   -2.32   5.05  15.31  0.0000  0.0000      16.606      16.606      14.528      13.663      13.383      13.026      11.933      12.620      12.185      11.812      10.696      10.691      10.354      10.454      10.094      10.261      11.627      13.009      10.659
  0.3000  3415.   -1.99   4.98  20.36  0.0000  0.0000      15.374      15.374      13.358      12.515      12.230      11.890      10.824      11.437      11.063      10.729       9.788       9.757       9.491       9.575       9.267       9.402      10.664      11.847       9.766
  0.4000  3528.   -1.73   4.91  25.53  0.0000  0.0000      14.505      14.505      12.512      11.670      11.377      11.055      10.014      10.576      10.238       9.929       9.097       9.055       8.830       8.904       8.629       8.748       9.931      10.998       9.084
  0.5000  3689.   -1.46   4.81  31.94  0.0000  0.0000      13.556      13.556      11.578      10.715      10.403      10.110       9.101       9.591       9.300       9.025       8.347       8.291       8.119       8.179       7.946       8.046       9.112      10.031       8.338
  0.6000  3971.   -1.17   4.73  38.56  0.0000  0.0000      12.479      12.479      10.530       9.632       9.290       9.043       8.086       8.484       8.250       8.019       7.563       7.496       7.390       7.431       7.255       7.335       8.208       8.939       7.551
  0.7000  4388.   -0.88   4.67  44.33  0.0000  0.0000      11.018      11.018       9.257       8.476       8.113       8.003       7.012       7.377       7.169       6.966       6.760       6.698       6.646       6.671       6.554       6.617       7.255       7.810       6.731
  0.8000  4822.   -0.61   4.63  50.01  0.0000  0.0040       9.452       9.452       7.979       7.350       7.046       6.911       6.184       6.455       6.306       6.154       6.033       5.990       5.964       5.977       5.901       5.950       6.419       6.830       6.014
  0.9000  5209.   -0.37   4.57  56.57  0.0000  0.0812       8.236       8.236       6.982       6.469       6.219       6.054       5.526       5.728       5.618       5.501       5.415       5.386       5.371       5.381       5.335       5.373       5.731       6.053       5.407
  1.0000  5572.   -0.14   4.51  63.79  0.0000  0.3070       7.241       7.241       6.151       5.730       5.521       5.357       4.957       5.110       5.027       4.937       4.875       4.856       4.847       4.856       4.835       4.865       5.135       5.393       4.876
  1.1000  5898.    0.06   4.45  72.07  0.0000  0.5740       6.434       6.434       5.438       5.087       4.905       4.758       4.446       4.560       4.497       4.428       4.386       4.375       4.371       4.379       4.378       4.400       4.599       4.808       4.392
  1.2000  6179.    0.25   4.38  81.62  0.0000  0.7700       5.771       5.771       4.821       4.521       4.361       4.234       3.990       4.072       4.026       3.972       3.946       3.941       3.944       3.949       3.962       3.978       4.120       4.290       3.957
  1.3000  6456.    0.42   4.32  91.16  0.0000  0.8800       5.212       5.212       4.270       4.012       3.868       3.763       3.580       3.631       3.600       3.564       3.552       3.553       3.562       3.564       3.591       3.602       3.687       3.822       3.567
  1.4000  6761.    0.58   4.27  99.43  0.0000  0.9380       4.732       4.732       3.771       3.549       3.418       3.336       3.220       3.235       3.221       3.203       3.207       3.216       3.232       3.232       3.271       3.280       3.299       3.398       3.228
