#   t (Gyr) =  0.030

    M/MsTeff(K)    L/Ls  lg(g)  R(Gcm       D      Li         F33        F33B         F41        F45B         F47         F51         FHa         F57        F63B         F67         F75         F78         F82        F82B         F89       G_RSV           G        G_BP        G_RP

  0.0100  1298.   -4.31   4.15   9.70  0.9900  1.0000      29.941      29.941      27.054      25.301      24.498      25.465      21.617      25.453      21.811      20.972      20.775      20.225      18.276      18.128      16.691      17.257      19.351      24.694      17.907
  0.0150  2139.   -3.26   4.14  12.01  0.1635  1.0000      25.793      25.793      23.823      21.555      21.374      20.413      17.857      19.679      18.173      17.447      15.934      15.819      14.570      14.777      13.604      14.727      16.041      19.898      14.663
  0.0200  2184.   -3.29   4.33  11.14  0.0000  1.0000      26.292      26.292      24.163      21.915      21.710      20.784      17.938      19.798      18.233      17.497      15.950      15.869      14.618      14.804      13.620      14.712      16.068      20.030      14.687
  0.0300  2448.   -3.05   4.46  11.71  0.0000  1.0000      22.552      22.552      20.953      19.233      18.935      18.336      16.544      18.065      16.755      16.044      14.079      14.284      13.194      13.396      12.437      13.302      14.755      18.298      13.434
  0.0400  2632.   -2.83   4.50  12.95  0.0000  1.0000      20.407      20.407      18.737      17.559      17.264      16.826      15.318      16.622      15.495      14.829      12.864      13.110      12.257      12.424      11.652      12.277      13.812      16.874      12.554
  0.0500  2755.   -2.68   4.53  14.05  0.0000  1.0000      19.205      19.205      17.416      16.412      16.155      15.705      14.395      15.513      14.599      13.997      12.188      12.379      11.674      11.828      11.179      11.651      13.206      15.786      12.000
  0.0600  2860.   -2.55   4.53  15.25  0.0000  1.0000      18.439      18.439      16.611      15.683      15.433      14.998      13.753      14.778      13.973      13.415      11.718      11.873      11.248      11.392      10.808      11.206      12.751      15.068      11.581
  0.0700  2925.   -2.45   4.54  16.33  0.0000  1.0000      17.878      17.878      16.027      15.110      14.876      14.407      13.333      14.267      13.565      13.045      11.399      11.523      10.940      11.084      10.542      10.895      12.428      14.551      11.285
  0.0720  2936.   -2.43   4.54  16.55  0.0000  1.0000      17.785      17.785      15.931      15.024      14.789      14.325      13.257      14.183      13.489      12.973      11.339      11.460      10.884      11.027      10.491      10.838      12.368      14.467      11.229
  0.0750  2952.   -2.40   4.54  16.94  0.0000  1.0000      17.638      17.638      15.779      14.887      14.654      14.196      13.139      14.051      13.370      12.860      11.243      11.360      10.795      10.937      10.409      10.747      12.273      14.336      11.140
  0.0800  2977.   -2.36   4.54  17.46  0.0000  0.9990      17.431      17.431      15.564      14.694      14.462      14.014      12.968      13.862      13.200      12.700      11.108      11.218      10.670      10.809      10.295      10.618      12.138      14.148      11.015
  0.0900  3020.   -2.28   4.54  18.51  0.0000  0.9970      17.063      17.063      15.140      14.321      14.095      13.663      12.632      13.485      12.864      12.384      10.859      10.953      10.439      10.572      10.084      10.380      11.882      13.780      10.781
  0.1000  3056.   -2.22   4.55  19.42  0.0000  0.9900      16.769      16.769      14.758      13.992      13.775      13.357      12.328      13.141      12.560      12.101      10.653      10.727      10.247      10.374       9.912      10.181      11.662      13.448      10.585
  0.2000  3279.   -1.78   4.53  27.91  0.0000  0.0078      15.058      15.058      12.998      12.275      12.044      11.675      10.674      11.345      10.900      10.520       9.368       9.381       9.034       9.136       8.772       8.954      10.315      11.700       9.342
  0.3000  3413.   -1.54   4.53  34.26  0.0000  0.0000      14.181      14.181      12.143      11.388      11.132      10.788       9.797      10.402      10.013       9.669       8.670       8.658       8.372       8.460       8.143       8.292       9.569      10.783       8.657
  0.4000  3508.   -1.36   4.53  39.56  0.0000  0.0000      13.604      13.604      11.579      10.798      10.527      10.198       9.211       9.772       9.418       9.098       8.199       8.172       7.925       8.003       7.715       7.846       9.061      10.172       8.191
  0.5000  3602.   -1.23   4.54  43.98  0.0000  0.0000      13.122      13.122      11.105      10.290      10.001       9.690       8.708       9.224       8.905       8.607       7.812       7.771       7.561       7.630       7.370       7.485       8.631       9.644       7.807
  0.6000  3739.   -1.08   4.53  48.54  0.0000  0.0000      12.576      12.576      10.566       9.711       9.397       9.113       8.144       8.604       8.323       8.055       7.392       7.337       7.171       7.230       7.004       7.103       8.147       9.043       7.387
  0.7000  3960.   -0.90   4.52  53.21  0.0000  0.0000      11.858      11.858       9.871       8.976       8.633       8.390       7.457       7.844       7.611       7.381       6.897       6.832       6.720       6.763       6.583       6.665       7.554       8.298       6.888
  0.8000  4320.   -0.66   4.49  58.49  0.0000  0.0054      10.639      10.639       8.820       8.021       7.655       7.540       6.530       6.900       6.686       6.477       6.248       6.182       6.125       6.152       6.026       6.091       6.761       7.340       6.218
  0.9000  4848.   -0.37   4.45  64.92  0.0000  0.0830       8.806       8.806       7.346       6.734       6.440       6.291       5.592       5.855       5.710       5.562       5.444       5.403       5.378       5.390       5.316       5.363       5.824       6.225       5.426
  1.0000  5520.   -0.03   4.39  73.88  0.0000  0.3070       7.015       7.015       5.900       5.472       5.261       5.092       4.681       4.839       4.753       4.660       4.595       4.575       4.565       4.574       4.549       4.579       4.862       5.127       4.594
  1.1000  5897.    0.07   4.43  73.32  0.0000  0.5750       6.397       6.397       5.400       5.049       4.867       4.721       4.409       4.523       4.460       4.391       4.349       4.338       4.334       4.342       4.341       4.363       4.562       4.771       4.355
  1.2000  6052.    0.19   4.40  79.48  0.0000  0.7700       5.998       5.998       5.033       4.711       4.541       4.405       4.131       4.227       4.173       4.113       4.079       4.072       4.072       4.078       4.085       4.103       4.272       4.459       4.088
  1.3000  6335.    0.38   4.33  90.28  0.0000  0.8800       5.367       5.367       4.422       4.148       3.997       3.883       3.674       3.738       3.701       3.657       3.639       3.638       3.644       3.647       3.668       3.682       3.791       3.941       3.652
  1.4000  6743.    0.56   4.28  98.19  0.0000  0.9380       4.774       4.774       3.817       3.592       3.461       3.377       3.257       3.275       3.260       3.240       3.243       3.252       3.268       3.267       3.306       3.314       3.338       3.439       3.264