#   t (Gyr) =  0.009

    M/MsTeff(K)    L/Ls  lg(g)  R(Gcm       D      Li         F33        F33B         F41        F45B         F47         F51         FHa         F57        F63B         F67         F75         F78         F82        F82B         F89       G_RSV           G        G_BP        G_RP

  0.0100  1635.   -3.79   4.03  11.13  1.0000  1.0000      28.854      28.854      25.885      23.743      23.657      22.474      19.122      21.232      19.496      18.778      17.915      17.677      16.947      17.046      16.137      16.561      18.304      21.374      17.025
  0.0150  2268.   -3.06   4.05  13.35  0.7700  1.0000      23.595      23.595      22.035      20.104      19.898      19.060      17.155      18.815      17.416      16.690      14.857      14.907      13.691      13.921      12.833      13.922      15.235      19.018      13.877
  0.0200  2522.   -2.65   3.95  17.30  0.4915  1.0000      19.908      19.908      18.240      17.294      17.147      16.505      15.439      16.744      15.606      14.921      12.830      13.035      12.082      12.280      11.422      12.208      13.662      16.862      12.372
  0.0300  2693.   -2.35   3.93  21.54  0.0072  1.0000      18.140      18.140      16.324      15.640      15.525      14.960      13.966      15.076      14.148      13.532      11.583      11.777      11.013      11.181      10.474      11.048      12.564      15.239      11.336
  0.0400  2777.   -2.29   4.05  21.70  0.0000  1.0000      17.699      17.699      15.849      15.159      15.018      14.499      13.472      14.514      13.668      13.085      11.245      11.420      10.731      10.887      10.245      10.733      12.260      14.715      11.063
  0.0500  2846.   -2.19   4.09  23.28  0.0000  1.0000      17.206      17.206      15.334      14.658      14.509      14.017      12.991      13.983      13.194      12.637      10.873      11.035      10.394      10.543       9.944      10.380      11.904      14.202      10.731
  0.0600  2901.   -2.10   4.11  24.79  0.0000  1.0000      16.798      16.798      14.911      14.233      14.082      13.593      12.616      13.559      12.826      12.292      10.580      10.727      10.120      10.266       9.698      10.099      11.616      13.785      10.462
  0.0700  2947.   -2.02   4.13  26.32  0.0000  1.0000      16.448      16.448      14.547      13.883      13.728      13.257      12.303      13.214      12.514      11.995      10.323      10.461       9.880      10.022       9.477       9.852      11.362      13.442      10.223
  0.0720  2955.   -2.00   4.13  26.69  0.0000  1.0000      16.375      16.375      14.471      13.811      13.656      13.188      12.239      13.144      12.450      11.934      10.269      10.406       9.829       9.970       9.430       9.801      11.309      13.372      10.173
  0.0750  2968.   -1.98   4.13  27.17  0.0000  1.0000      16.274      16.274      14.367      13.712      13.556      13.093      12.151      13.047      12.362      11.849      10.195      10.330       9.760       9.900       9.367       9.730      11.236      13.275      10.104
  0.0800  2987.   -1.94   4.13  28.18  0.0000  1.0000      16.093      16.093      14.179      13.536      13.381      12.925      11.995      12.878      12.205      11.700      10.062      10.193       9.634       9.772       9.249       9.602      11.104      13.105       9.978
  0.0900  3019.   -1.87   4.13  29.77  0.0000  1.0000      15.829      15.829      13.875      13.252      13.096      12.654      11.729      12.584      11.939      11.447       9.855       9.975       9.439       9.574       9.069       9.401      10.893      12.819       9.783
  0.1000  3048.   -1.84   4.16  30.29  0.0000  1.0000      15.682      15.682      13.677      13.062      12.904      12.473      11.539      12.365      11.751      11.274       9.740       9.843       9.334       9.464       8.979       9.287      10.768      12.616       9.674
  0.2000  3237.   -1.44   4.16  42.78  0.0000  1.0000      14.242      14.242      12.157      11.544      11.358      10.978      10.052      10.753      10.260       9.850       8.562       8.611       8.214       8.324       7.927       8.148       9.548      11.055       8.536
  0.3000  3363.   -1.21   4.17  51.67  0.0000  0.9900      13.462      13.462      11.384      10.717      10.498      10.143       9.218       9.851       9.419       9.046       7.908       7.930       7.593       7.692       7.341       7.522       8.855      10.189       7.898
  0.4000  3512.   -1.02   4.19  58.39  0.0000  0.8300      12.810      12.810      10.736       9.995       9.736       9.411       8.485       9.038       8.671       8.342       7.382       7.371       7.104       7.187       6.888       7.031       8.267       9.417       7.380
  0.5000  3659.   -0.88   4.21  63.80  0.0000  0.1490      12.259      12.259      10.188       9.376       9.080       8.787       7.864       8.341       8.034       7.745       6.952       6.914       6.709       6.777       6.524       6.639       7.766       8.758       6.953
  0.6000  3789.   -0.76   4.23  68.24  0.0000  0.0417      11.805      11.805       9.742       8.880       8.557       8.292       7.376       7.796       7.530       7.272       6.614       6.560       6.401       6.457       6.238       6.336       7.362       8.235       6.614
  0.7000  3916.   -0.64   4.24  72.75  0.0000  0.0624      11.359      11.359       9.314       8.416       8.074       7.829       6.919       7.295       7.060       6.827       6.300       6.236       6.115       6.160       5.970       6.056       6.978       7.750       6.293
  0.8000  4044.   -0.54   4.26  76.78  0.0000  0.1190      10.897      10.897       8.898       8.023       7.663       7.475       6.506       6.876       6.650       6.425       6.011       5.941       5.847       5.885       5.718       5.796       6.632       7.335       5.995
  0.9000  4185.   -0.43   4.26  81.14  0.0000  0.2350      10.360      10.360       8.438       7.613       7.244       7.116       6.073       6.453       6.227       6.007       5.708       5.636       5.566       5.597       5.453       5.524       6.269       6.909       5.681
  1.0000  4344.   -0.32   4.26  85.31  0.0000  0.4090       9.734       9.734       7.920       7.137       6.779       6.654       5.668       6.030       5.821       5.618       5.405       5.340       5.287       5.312       5.188       5.252       5.904       6.466       5.373
  1.1000  4513.   -0.21   4.25  90.30  0.0000  0.6120       9.054       9.054       7.366       6.646       6.309       6.177       5.286       5.617       5.430       5.246       5.083       5.027       4.987       5.006       4.900       4.958       5.533       6.030       5.054
  1.2000  4702.   -0.08   4.24  96.06  0.0000  0.7780       8.345       8.345       6.787       6.136       5.828       5.680       4.909       5.197       5.037       4.876       4.742       4.694       4.664       4.678       4.591       4.643       5.148       5.585       4.719
  1.3000  4927.    0.06   4.21 103.00  0.0000  0.8810       7.591       7.591       6.171       5.592       5.318       5.147       4.506       4.751       4.617       4.478       4.368       4.329       4.308       4.319       4.250       4.295       4.731       5.110       4.352
  1.4000  5201.    0.23   4.17 112.42  0.0000  0.9380       6.752       6.752       5.484       4.983       4.745       4.561       4.046       4.247       4.138       4.022       3.935       3.905       3.890       3.900       3.852       3.889       4.250       4.571       3.927
